Title                                                           12.07.2021 20:16
________________________________________________________________________________

Title
Evaluation Categories:

Curve Name:
  &293water-day5-30-160-20K
  Sample Weight
Curve Values:
          Index              t             Ts             Tr          Value
                           [s]           [°C]           [°C]           [mg]
              0              0         24.340         30.000        12.5488
              1              1         24.308         30.333        12.5484
              2              2         24.328         30.667        12.5481
              3              3         24.454         31.000         12.548
              4              4         24.631         31.333        12.5481
              5              5         24.826         31.667        12.5482
              6              6         25.046         32.000        12.5483
              7              7         25.257         32.333        12.5484
              8              8         25.497         32.667        12.5485
              9              9         25.729         33.000        12.5485
             10             10         25.985         33.333        12.5485
             11             11         26.234         33.667        12.5485
             12             12         26.510         34.000        12.5482
             13             13         26.775         34.333        12.5479
             14             14         27.051         34.667        12.5476
             15             15         27.328         35.000        12.5473
             16             16         27.612         35.333        12.5471
             17             17         27.910         35.667        12.5468
             18             18         28.201         36.000        12.5465
             19             19         28.484         36.333        12.5462
             20             20         28.786         36.667        12.5459
             21             21         29.084         37.000        12.5456
             22             22         29.403         37.333        12.5453
             23             23         29.703         37.667         12.545
             24             24         30.012         38.000        12.5447
             25             25         30.317         38.333        12.5445
             26             26         30.614         38.667        12.5442
             27             27         30.931         39.000        12.5439
             28             28         31.254         39.333        12.5436
             29             29         31.561         39.667        12.5434
             30             30         31.890         40.000        12.5432
             31             31         32.210         40.333         12.543
             32             32         32.519         40.667        12.5426
             33             33         32.843         41.000        12.5422
             34             34         33.161         41.333        12.5419
             35             35         33.489         41.667        12.5416
             36             36         33.810         42.000        12.5412
             37             37         34.131         42.333        12.5408
             38             38         34.451         42.667        12.5403
             39             39         34.788         43.000        12.5399
             40             40         35.109         43.333        12.5396
             41             41         35.438         43.667        12.5392
             42             42         35.766         44.000        12.5387
             43             43         36.109         44.333        12.5383
             44             44         36.432         44.667        12.5379
             45             45         36.765         45.000        12.5374
             46             46         37.098         45.333         12.537
             47             47         37.428         45.667        12.5366
             48             48         37.761         46.000        12.5363
             49             49         38.092         46.333         12.536
             50             50         38.432         46.667        12.5357
             51             51         38.764         47.000        12.5353
             52             52         39.093         47.333         12.535
             53             53         39.431         47.667        12.5348
             54             54         39.761         48.000        12.5345
             55             55         40.095         48.333        12.5342
             56             56         40.438         48.667        12.5338
             57             57         40.773         49.000        12.5335
             58             58         41.102         49.333        12.5331
             59             59         41.444         49.667        12.5328
             60             60         41.770         50.000        12.5324
             61             61         42.106         50.333         12.532
             62             62         42.450         50.667        12.5317
             63             63         42.793         51.000        12.5315
             64             64         43.129         51.333        12.5312
             65             65         43.474         51.667        12.5309
             66             66         43.810         52.000        12.5306
             67             67         44.140         52.333        12.5304
             68             68         44.483         52.667        12.5302
             69             69         44.825         53.000        12.5299
             70             70         45.164         53.333        12.5296
             71             71         45.502         53.667        12.5293
             72             72         45.848         54.000        12.5291
             73             73         46.177         54.333        12.5288
             74             74         46.524         54.667        12.5285
             75             75         46.860         55.000        12.5282
             76             76         47.202         55.333        12.5279
             77             77         47.558         55.667        12.5276
             78             78         47.894         56.000        12.5273
             79             79         48.239         56.333         12.527
             80             80         48.587         56.667        12.5267
             81             81         48.929         57.000        12.5262
             82             82         49.264         57.333        12.5259
             83             83         49.597         57.667        12.5256
             84             84         49.934         58.000        12.5254
             85             85         50.271         58.333        12.5252
             86             86         50.620         58.667        12.5249
             87             87         50.973         59.000        12.5246
             88             88         51.308         59.333        12.5243
             89             89         51.648         59.667        12.5239
             90             90         51.986         60.000        12.5235
             91             91         52.337         60.333        12.5231
             92             92         52.675         60.667        12.5224
             93             93         53.024         61.000        12.5219
             94             94         53.362         61.333        12.5213
             95             95         53.714         61.667        12.5209
             96             96         54.058         62.000        12.5204
             97             97         54.405         62.333        12.5199
             98             98         54.736         62.667        12.5193
             99             99         55.087         63.000        12.5188
            100            100         55.436         63.333        12.5183
            101            101         55.776         63.667        12.5178
            102            102         56.110         64.000        12.5172
            103            103         56.462         64.333        12.5167
            104            104         56.802         64.667        12.5162
            105            105         57.148         65.000        12.5156
            106            106         57.497         65.333        12.5149
            107            107         57.845         65.667         12.514
            108            108         58.178         66.000        12.5131
            109            109         58.508         66.333        12.5122
            110            110         58.848         66.667        12.5112
            111            111         59.194         67.000        12.5102
            112            112         59.525         67.333        12.5088
            113            113         59.874         67.667        12.5076
            114            114         60.205         68.000        12.5063
            115            115         60.540         68.333         12.505
            116            116         60.879         68.667        12.5034
            117            117         61.231         69.000        12.5019
            118            118         61.564         69.333        12.5004
            119            119         61.908         69.667        12.4989
            120            120         62.232         70.000         12.497
            121            121         62.579         70.333        12.4952
            122            122         62.924         70.667        12.4933
            123            123         63.254         71.000        12.4915
            124            124         63.605         71.333        12.4893
            125            125         63.950         71.667        12.4871
            126            126         64.286         72.000        12.4849
            127            127         64.633         72.333        12.4826
            128            128         64.965         72.667        12.4802
            129            129         65.297         73.000        12.4778
            130            130         65.641         73.333        12.4753
            131            131         65.985         73.667        12.4727
            132            132         66.334         74.000        12.4699
            133            133         66.677         74.333        12.4672
            134            134         67.016         74.667        12.4642
            135            135         67.359         75.000        12.4613
            136            136         67.711         75.333        12.4581
            137            137         68.062         75.667        12.4548
            138            138         68.401         76.000        12.4515
            139            139         68.746         76.333         12.448
            140            140         69.082         76.667        12.4441
            141            141         69.429         77.000        12.4404
            142            142         69.767         77.333        12.4366
            143            143         70.099         77.667        12.4325
            144            144         70.445         78.000        12.4283
            145            145         70.796         78.333        12.4237
            146            146         71.135         78.667        12.4192
            147            147         71.481         79.000        12.4146
            148            148         71.812         79.333        12.4098
            149            149         72.150         79.667        12.4046
            150            150         72.500         80.000        12.3995
            151            151         72.838         80.333        12.3942
            152            152         73.167         80.667        12.3889
            153            153         73.502         81.000         12.383
            154            154         73.842         81.333        12.3773
            155            155         74.165         81.667        12.3715
            156            156         74.496         82.000        12.3656
            157            157         74.829         82.333        12.3591
            158            158         75.162         82.667        12.3526
            159            159         75.493         83.000         12.346
            160            160         75.822         83.333        12.3394
            161            161         76.135         83.667         12.332
            162            162         76.462         84.000        12.3246
            163            163         76.793         84.333         12.317
            164            164         77.118         84.667        12.3094
            165            165         77.441         85.000        12.3011
            166            166         77.757         85.333        12.2929
            167            167         78.080         85.667        12.2845
            168            168         78.397         86.000         12.276
            169            169         78.716         86.333        12.2671
            170            170         79.027         86.667        12.2581
            171            171         79.348         87.000        12.2491
            172            172         79.652         87.333        12.2398
            173            173         79.971         87.667        12.2301
            174            174         80.289         88.000        12.2203
            175            175         80.580         88.333        12.2104
            176            176         80.890         88.667        12.2003
            177            177         81.197         89.000        12.1895
            178            178         81.507         89.333        12.1788
            179            179         81.814         89.667        12.1681
            180            180         82.114         90.000        12.1571
            181            181         82.415         90.333        12.1454
            182            182         82.713         90.667        12.1337
            183            183         83.011         91.000         12.122
            184            184         83.326         91.333        12.1102
            185            185         83.629         91.667        12.0977
            186            186         83.922         92.000        12.0851
            187            187         84.223         92.333        12.0724
            188            188         84.526         92.667        12.0597
            189            189         84.825         93.000        12.0467
            190            190         85.121         93.333        12.0338
            191            191         85.411         93.667        12.0207
            192            192         85.709         94.000        12.0075
            193            193         86.007         94.333        11.9941
            194            194         86.301         94.667        11.9806
            195            195         86.598         95.000        11.9666
            196            196         86.891         95.333        11.9524
            197            197         87.181         95.667        11.9374
            198            198         87.460         96.000        11.9227
            199            199         87.775         96.333        11.9078
            200            200         88.061         96.667        11.8927
            201            201         88.349         97.000        11.8773
            202            202         88.642         97.333        11.8621
            203            203         88.936         97.667        11.8469
            204            204         89.217         98.000        11.8315
            205            205         89.516         98.333        11.8158
            206            206         89.817         98.667        11.8001
            207            207         90.117         99.000        11.7844
            208            208         90.415         99.333        11.7686
            209            209         90.699         99.667        11.7521
            210            210         90.989        100.000        11.7357
            211            211         91.279        100.333        11.7194
            212            212         91.580        100.667         11.703
            213            213         91.873        101.000         11.686
            214            214         92.177        101.333        11.6691
            215            215         92.476        101.667        11.6522
            216            216         92.765        102.000        11.6353
            217            217         93.067        102.333        11.6181
            218            218         93.357        102.667        11.6008
            219            219         93.663        103.000        11.5835
            220            220         93.971        103.333        11.5663
            221            221         94.270        103.667         11.549
            222            222         94.567        104.000        11.5318
            223            223         94.872        104.333        11.5146
            224            224         95.185        104.667        11.4973
            225            225         95.493        105.000        11.4804
            226            226         95.801        105.333        11.4633
            227            227         96.113        105.667        11.4462
            228            228         96.429        106.000         11.429
            229            229         96.748        106.333         11.412
            230            230         97.059        106.667        11.3951
            231            231         97.377        107.000        11.3781
            232            232         97.692        107.333         11.361
            233            233         98.020        107.667        11.3441
            234            234         98.330        108.000        11.3273
            235            235         98.653        108.333        11.3107
            236            236         98.979        108.667        11.2941
            237            237         99.305        109.000        11.2774
            238            238         99.636        109.333        11.2607
            239            239         99.970        109.667        11.2442
            240            240        100.300        110.000        11.2279
            241            241        100.640        110.333        11.2117
            242            242        100.976        110.667        11.1957
            243            243        101.309        111.000        11.1798
            244            244        101.652        111.333         11.164
            245            245        101.983        111.667        11.1485
            246            246        102.324        112.000        11.1334
            247            247        102.675        112.333        11.1182
            248            248        103.018        112.667        11.1033
            249            249        103.365        113.000        11.0886
            250            250        103.717        113.333        11.0745
            251            251        104.071        113.667        11.0601
            252            252        104.432        114.000        11.0459
            253            253        104.777        114.333        11.0318
