Title                                                           12.07.2021 19:11
________________________________________________________________________________

Title
Evaluation Categories:

Curve Name:
  &293water-day5-30-180-10K
  Sample Weight
Curve Values:
          Index              t             Ts             Tr          Value
                           [s]           [°C]           [°C]           [mg]
              0              0         23.973         30.000        7.17153
              1              1         23.957         30.167        7.17126
              2              2         23.967         30.333        7.17112
              3              3         24.013         30.500        7.17101
              4              4         24.067         30.667        7.17115
              5              5         24.156         30.833        7.17113
              6              6         24.232         31.000        7.17111
              7              7         24.333         31.167        7.17115
              8              8         24.423         31.333         7.1713
              9              9         24.528         31.500        7.17138
             10             10         24.636         31.667        7.17136
             11             11         24.745         31.833        7.17129
             12             12         24.857         32.000        7.17126
             13             13         24.976         32.167        7.17115
             14             14         25.098         32.333        7.17098
             15             15         25.217         32.500        7.17078
             16             16         25.343         32.667        7.17045
             17             17         25.471         32.833        7.17022
             18             18         25.604         33.000        7.16997
             19             19         25.741         33.167        7.16971
             20             20         25.877         33.333        7.16961
             21             21         26.013         33.500        7.16955
             22             22         26.151         33.667        7.16946
             23             23         26.277         33.833        7.16931
             24             24         26.429         34.000        7.16914
             25             25         26.573         34.167        7.16916
             26             26         26.718         34.333        7.16911
             27             27         26.857         34.500        7.16897
             28             28         27.010         34.667        7.16879
             29             29         27.158         34.833        7.16853
             30             30         27.308         35.000        7.16828
             31             31         27.468         35.167        7.16798
             32             32         27.615         35.333        7.16765
             33             33         27.766         35.500        7.16725
             34             34         27.921         35.667        7.16698
             35             35         28.068         35.833        7.16674
             36             36         28.218         36.000        7.16647
             37             37         28.383         36.167        7.16623
             38             38         28.546         36.333        7.16602
             39             39         28.700         36.500        7.16589
             40             40         28.866         36.667        7.16579
             41             41         29.013         36.833        7.16554
             42             42         29.169         37.000        7.16526
             43             43         29.329         37.167          7.165
             44             44         29.471         37.333        7.16476
             45             45         29.648         37.500        7.16438
             46             46         29.814         37.667        7.16401
             47             47         29.973         37.833        7.16364
             48             48         30.136         38.000        7.16327
             49             49         30.293         38.167        7.16288
             50             50         30.452         38.333         7.1625
             51             51         30.620         38.500        7.16222
             52             52         30.790         38.667        7.16202
             53             53         30.936         38.833        7.16192
             54             54         31.110         39.000        7.16174
             55             55         31.280         39.167        7.16152
             56             56         31.434         39.333        7.16131
             57             57         31.608         39.500        7.16124
             58             58         31.764         39.667         7.1611
             59             59         31.928         39.833        7.16091
             60             60         32.095         40.000        7.16069
             61             61         32.270         40.167        7.16048
             62             62         32.448         40.333         7.1603
             63             63         32.605         40.500         7.1601
             64             64         32.773         40.667         7.1599
             65             65         32.938         40.833        7.15978
             66             66         33.111         41.000        7.15967
             67             67         33.288         41.167        7.15954
             68             68         33.461         41.333        7.15938
             69             69         33.627         41.500        7.15933
             70             70         33.812         41.667         7.1593
             71             71         33.990         41.833        7.15926
             72             72         34.160         42.000        7.15917
             73             73         34.341         42.167        7.15901
             74             74         34.513         42.333        7.15887
             75             75         34.706         42.500        7.15875
             76             76         34.885         42.667        7.15861
             77             77         35.067         42.833        7.15828
             78             78         35.249         43.000        7.15806
             79             79         35.432         43.167        7.15791
             80             80         35.613         43.333        7.15778
             81             81         35.807         43.500        7.15758
             82             82         35.990         43.667        7.15743
             83             83         36.171         43.833         7.1574
             84             84         36.352         44.000        7.15743
             85             85         36.539         44.167        7.15743
             86             86         36.726         44.333        7.15736
             87             87         36.913         44.500        7.15731
             88             88         37.109         44.667        7.15732
             89             89         37.303         44.833        7.15736
             90             90         37.495         45.000        7.15733
             91             91         37.675         45.167        7.15723
             92             92         37.866         45.333        7.15711
             93             93         38.059         45.500          7.157
             94             94         38.253         45.667        7.15685
             95             95         38.442         45.833         7.1567
             96             96         38.639         46.000        7.15661
             97             97         38.833         46.167         7.1566
             98             98         39.033         46.333        7.15661
             99             99         39.220         46.500        7.15656
            100            100         39.404         46.667        7.15648
            101            101         39.600         46.833        7.15666
            102            102         39.786         47.000        7.15674
            103            103         39.989         47.167         7.1567
            104            104         40.185         47.333        7.15658
            105            105         40.371         47.500        7.15645
            106            106         40.556         47.667         7.1564
            107            107         40.755         47.833        7.15634
            108            108         40.943         48.000        7.15626
            109            109         41.139         48.167        7.15617
            110            110         41.322         48.333        7.15611
            111            111         41.512         48.500        7.15605
            112            112         41.710         48.667        7.15595
            113            113         41.899         48.833        7.15575
            114            114         42.090         49.000        7.15563
            115            115         42.273         49.167        7.15561
            116            116         42.476         49.333        7.15556
            117            117         42.653         49.500        7.15544
            118            118         42.849         49.667        7.15531
            119            119         43.036         49.833        7.15521
            120            120         43.219         50.000        7.15515
            121            121         43.423         50.167        7.15507
            122            122         43.597         50.333        7.15481
            123            123         43.794         50.500        7.15461
            124            124         43.984         50.667        7.15443
            125            125         44.172         50.833        7.15423
            126            126         44.362         51.000        7.15393
            127            127         44.550         51.167        7.15374
            128            128         44.727         51.333        7.15368
            129            129         44.902         51.500        7.15371
            130            130         45.104         51.667        7.15376
            131            131         45.288         51.833        7.15374
            132            132         45.470         52.000        7.15373
            133            133         45.659         52.167        7.15375
            134            134         45.830         52.333        7.15375
            135            135         46.014         52.500        7.15364
            136            136         46.204         52.667        7.15348
            137            137         46.392         52.833        7.15333
            138            138         46.574         53.000        7.15309
            139            139         46.750         53.167        7.15286
            140            140         46.944         53.333        7.15263
            141            141         47.118         53.500        7.15242
            142            142         47.306         53.667        7.15233
            143            143         47.482         53.833        7.15219
            144            144         47.664         54.000        7.15199
            145            145         47.847         54.167        7.15176
            146            146         48.021         54.333        7.15165
            147            147         48.191         54.500        7.15152
            148            148         48.383         54.667        7.15136
            149            149         48.563         54.833        7.15118
            150            150         48.752         55.000        7.15103
            151            151         48.922         55.167        7.15088
            152            152         49.106         55.333        7.15073
            153            153         49.290         55.500        7.15059
            154            154         49.474         55.667        7.15049
            155            155         49.650         55.833        7.15038
            156            156         49.813         56.000        7.15024
            157            157         49.993         56.167        7.15006
            158            158         50.169         56.333        7.14981
            159            159         50.346         56.500        7.14959
            160            160         50.525         56.667        7.14939
            161            161         50.698         56.833        7.14919
            162            162         50.877         57.000        7.14881
            163            163         51.054         57.167        7.14849
            164            164         51.229         57.333        7.14822
            165            165         51.408         57.500        7.14797
            166            166         51.574         57.667        7.14759
            167            167         51.752         57.833        7.14724
            168            168         51.926         58.000        7.14694
            169            169         52.107         58.167        7.14668
            170            170         52.275         58.333        7.14634
            171            171         52.457         58.500        7.14594
            172            172         52.622         58.667        7.14552
            173            173         52.800         58.833        7.14512
            174            174         52.971         59.000        7.14475
            175            175         53.149         59.167        7.14436
            176            176         53.317         59.333        7.14396
            177            177         53.476         59.500        7.14357
            178            178         53.655         59.667        7.14331
            179            179         53.827         59.833        7.14294
            180            180         54.003         60.000        7.14244
            181            181         54.175         60.167        7.14192
            182            182         54.345         60.333        7.14142
            183            183         54.518         60.500        7.14092
            184            184         54.691         60.667        7.14035
            185            185         54.854         60.833        7.13976
            186            186         55.023         61.000        7.13918
            187            187         55.199         61.167        7.13858
            188            188         55.362         61.333        7.13789
            189            189         55.530         61.500        7.13712
            190            190         55.695         61.667        7.13631
            191            191         55.860         61.833        7.13557
            192            192         56.038         62.000         7.1348
            193            193         56.205         62.167         7.1339
            194            194         56.382         62.333         7.1327
            195            195         56.550         62.500        7.13172
            196            196         56.709         62.667        7.13093
            197            197         56.876         62.833        7.13015
            198            198         57.046         63.000        7.12889
            199            199         57.219         63.167        7.12776
            200            200         57.381         63.333        7.12677
            201            201         57.533         63.500        7.12583
            202            202         57.711         63.667        7.12466
            203            203         57.873         63.833        7.12356
            204            204         58.035         64.000        7.12255
            205            205         58.200         64.167        7.12158
            206            206         58.371         64.333        7.12056
            207            207         58.538         64.500        7.11942
            208            208         58.696         64.667        7.11827
            209            209         58.877         64.833        7.11718
            210            210         59.026         65.000        7.11608
            211            211         59.201         65.167        7.11463
            212            212         59.360         65.333        7.11334
            213            213         59.530         65.500        7.11214
            214            214         59.686         65.667        7.11091
            215            215         59.844         65.833        7.10946
            216            216         60.007         66.000        7.10807
            217            217         60.167         66.167         7.1067
            218            218         60.332         66.333        7.10534
            219            219         60.486         66.500        7.10377
            220            220         60.661         66.667        7.10217
            221            221         60.819         66.833        7.10051
            222            222         60.976         67.000        7.09881
            223            223         61.150         67.167        7.09711
            224            224         61.310         67.333         7.0955
            225            225         61.483         67.500        7.09382
            226            226         61.633         67.667        7.09206
            227            227         61.788         67.833        7.09041
            228            228         61.954         68.000        7.08874
            229            229         62.123         68.167        7.08694
            230            230         62.280         68.333        7.08494
            231            231         62.441         68.500        7.08258
            232            232         62.598         68.667        7.08053
            233            233         62.762         68.833        7.07865
            234            234         62.920         69.000        7.07676
            235            235         63.076         69.167        7.07449
            236            236         63.248         69.333        7.07233
            237            237         63.388         69.500        7.07025
            238            238         63.551         69.667        7.06822
            239            239         63.713         69.833        7.06594
            240            240         63.875         70.000        7.06361
            241            241         64.037         70.167        7.06127
            242            242         64.192         70.333        7.05892
            243            243         64.342         70.500         7.0563
            244            244         64.502         70.667        7.05377
            245            245         64.662         70.833        7.05128
            246            246         64.824         71.000         7.0488
            247            247         64.972         71.167        7.04619
            248            248         65.144         71.333        7.04352
            249            249         65.296         71.500        7.04074
            250            250         65.461         71.667        7.03791
            251            251         65.611         71.833        7.03502
            252            252         65.764         72.000        7.03214
            253            253         65.919         72.167        7.02915
